#Acq. time (s)=	75
#Accumulations=	5
#Range=	Off
#Autofocus=	Off
#Macrospot=	Off
#AutoExposure=	Off
#Spike filter=	Multiple accum.
#Delay time (s)=	0
#Binning=	1
#Readout mode=	Signal
#DeNoise=	Off
#ICS correction=	Off
#Dark correction=	Off
#Inst. Process=	Off
#Instrument=	LabRAM HR Evol
#Detector=	Andor CCD
#Objective=	x100 LWD
#Grating=	1800 gr/mm
#ND Filter=	100%
#Laser (nm)=	532 
#Spectro (cm-¹)=	1240.02
#Hole=	49.98
#Range=	Visible
#AFM=	Off
#StageXY=	Marzhauser
#StageZ=	Marzhauser
#X (µm)=	-5511.2
#Y (µm)=	-1274.8
#Z (µm)=	-325.9
#Project=	
#Sample=	
#Site=	
#Title=	g15-mi1
#Remark=	
#Date=	06.05.2022 08:14
#Acquired=	06.05.2022 08:14:50
1454.81	2641
1454.54	2648.25
1454.28	2603
1454.02	2619
1453.75	2630
1453.49	2649.5
1453.22	2616
1452.96	2628.5
1452.69	2648.5
1452.43	2565
1452.16	2628.5
1451.9	2585.75
1451.64	2562.25
1451.37	2618.5
1451.11	2654.25
1450.84	2634.75
1450.58	2633.75
1450.31	2584.25
1450.05	2564
1449.79	2594.75
1449.52	2630.25
1449.26	2605.75
1448.99	2672
1448.73	2619.75
1448.46	2608.5
1448.2	2644
1447.93	2601.25
1447.67	2566.25
1447.4	2581.5
1447.14	2596.25
1446.88	2665.5
1446.61	2590.75
1446.35	2567.5
1446.08	2556.5
1445.82	2639.25
1445.55	2593.25
1445.29	2610.75
1445.02	2565.25
1444.76	2634
1444.49	2618.25
1444.23	2583.75
1443.97	2596.75
1443.7	2616.25
1443.44	2613.75
1443.17	2567.75
1442.91	2547
1442.64	2629.25
1442.38	2640
1442.11	2594.5
1441.85	2571.5
1441.58	2600.75
1441.32	2575
1441.05	2592.75
1440.79	2561.5
1440.52	2549
1440.26	2598
1439.99	2589.75
1439.73	2563.75
1439.46	2579.25
1439.2	2586.75
1438.93	2615.5
1438.67	2586.5
1438.4	2559.5
1438.14	2588.75
1437.87	2635
1437.61	2576.25
1437.34	2614.25
1437.08	2629.5
1436.81	2586.75
1436.55	2549.25
1436.28	2576.5
1436.02	2567.75
1435.75	2630.25
1435.49	2605
1435.22	2586.5
1434.96	2571
1434.69	2598.75
1434.43	2568.5
1434.16	2605
1433.9	2536.5
1433.63	2541.75
1433.37	2584.5
1433.1	2558.75
1432.84	2584
1432.57	2543.75
1432.31	2592.75
1432.04	2564
1431.78	2535.25
1431.51	2546.5
1431.25	2565.5
1430.98	2555.75
1430.71	2595.25
1430.45	2551.5
1430.18	2610
1429.92	2518
1429.65	2552
1429.39	2505.75
1429.12	2573.25
1428.86	2553
1428.59	2591
1428.33	2572.5
1428.06	2554.75
1427.8	2549
1427.53	2566.75
1427.26	2557.5
1427	2617
1426.73	2587.25
1426.47	2571.75
1426.2	2548.25
1425.94	2511.75
1425.67	2516.25
1425.41	2566.25
1425.14	2550.5
1424.88	2578.5
1424.61	2548.5
1424.34	2546.75
1424.08	2599
1423.81	2561
1423.55	2519.25
1423.28	2507.75
1423.02	2485.25
1422.75	2532.5
1422.49	2558.25
1422.22	2535.5
1421.95	2608.5
1421.69	2557
1421.42	2508.25
1421.16	2538
1420.89	2552
1420.62	2531.5
1420.36	2554.25
1420.09	2564.5
1419.83	2595
1419.56	2584.25
1419.3	2530
1419.03	2531.75
1418.76	2482.25
1418.5	2581.5
1418.23	2537
1417.97	2563.75
1417.7	2529.25
1417.43	2562
1417.17	2473.5
1416.9	2529.25
1416.64	2517.5
1416.37	2533.25
1416.1	2545.25
1415.84	2516.5
1415.57	2527.5
1415.31	2576.25
1415.04	2515.5
1414.77	2472.25
1414.51	2520.5
1414.24	2494.75
1413.98	2525.75
1413.71	2531.75
1413.44	2517.25
1413.18	2590.75
1412.91	2523.5
1412.65	2503.75
1412.38	2514
1412.11	2508.25
1411.85	2534
1411.58	2474
1411.32	2568.5
1411.05	2569.5
1410.78	2532.5
1410.52	2497
1410.25	2497.75
1409.98	2529.75
1409.72	2508
1409.45	2518
1409.18	2498
1408.92	2552.5
1408.65	2513.25
1408.39	2528.5
1408.12	2488.5
1407.85	2504
1407.59	2544.25
1407.32	2523.75
1407.05	2556.5
1406.79	2554.25
1406.52	2532.25
1406.25	2473.5
1405.99	2539.25
1405.72	2530.75
1405.46	2543.75
1405.19	2495
1404.92	2531.75
1404.66	2458.75
1404.39	2541.25
1404.12	2456
1403.86	2554
1403.59	2503.25
1403.32	2464.25
1403.06	2503.75
1402.79	2516
1402.52	2509.75
1402.26	2519.25
1401.99	2500.25
1401.72	2471.75
1401.46	2495.25
1401.19	2524.25
1400.92	2484.5
1400.66	2512
1400.39	2510.25
1400.12	2528.5
1399.86	2530.75
1399.59	2530.5
1399.32	2469
1399.06	2467.75
1398.79	2455.75
1398.52	2513.75
1398.26	2501
1397.99	2501.5
1397.72	2521
1397.46	2464
1397.19	2503.5
1396.92	2494.75
1396.66	2519.5
1396.39	2483.25
1396.12	2473.75
1395.85	2405.5
1395.59	2468
1395.32	2458.25
1395.05	2498.75
1394.79	2492
1394.52	2478
1394.25	2474.25
1393.98	2453.25
1393.72	2505.75
1393.45	2561.25
1393.18	2519.25
1392.92	2503.5
1392.65	2511
1392.38	2500
1392.12	2449.75
1391.85	2516.25
1391.58	2504.5
1391.31	2493
1391.05	2464.25
1390.78	2511.75
1390.51	2489.25
1390.24	2486
1389.98	2527
1389.71	2550.5
1389.44	2580.5
1389.18	2543.5
1388.91	2537.5
1388.64	2518
1388.38	2482.75
1388.11	2462
1387.84	2481
1387.57	2467.25
1387.31	2511
1387.04	2556
1386.77	2488.5
1386.5	2481.75
1386.24	2469
1385.97	2485
1385.7	2453.25
1385.43	2477
1385.17	2536.25
1384.9	2539.75
1384.63	2548.25
1384.36	2484
1384.1	2472.25
1383.83	2484.5
1383.56	2473.75
1383.29	2540.5
1383.03	2541
1382.76	2491
1382.49	2549.25
1382.22	2502.75
1381.96	2558.5
1381.69	2505.75
1381.42	2488.5
1381.15	2559.75
1380.89	2515.75
1380.62	2572
1380.35	2544.5
1380.08	2554.5
1379.82	2506.75
1379.55	2481.75
1379.28	2567.25
1379.01	2557.75
1378.74	2525
1378.48	2585.5
1378.21	2558
1377.94	2552.25
1377.67	2519.25
1377.41	2488.75
1377.14	2503.25
1376.87	2507.25
1376.6	2501.5
1376.33	2498.75
1376.07	2523.5
1375.8	2531.75
1375.53	2480.25
1375.26	2467
1374.99	2517.75
1374.73	2467.75
1374.46	2492.75
1374.19	2523.25
1373.92	2483.5
1373.66	2508.25
1373.39	2493.5
1373.12	2454
1372.85	2465.5
1372.58	2520.5
1372.32	2494
1372.05	2446
1371.78	2515.5
1371.51	2490.25
1371.24	2464.25
1370.98	2394.5
1370.71	2465
1370.44	2466.25
1370.17	2499.25
1369.9	2508.75
1369.63	2481
1369.37	2499
1369.1	2484.5
1368.83	2425
1368.56	2458
1368.29	2423
1368.03	2465.5
1367.76	2470.25
1367.49	2420.5
1367.22	2439.5
1366.95	2448.5
1366.68	2526.25
1366.42	2489.75
1366.15	2424.75
1365.88	2511.25
1365.61	2514.75
1365.34	2462.25
1365.07	2457
1364.81	2451.5
1364.54	2492.25
1364.27	2451.75
1364	2435.5
1363.73	2436.25
1363.46	2454.25
1363.19	2425
1362.93	2461.75
1362.66	2480
1362.39	2404.25
1362.12	2440.5
1361.85	2421
1361.58	2474.75
1361.32	2424.5
1361.05	2496.75
1360.78	2429.5
1360.51	2482.75
1360.24	2436.5
1359.97	2490.5
1359.71	2464.75
1359.44	2398.25
1359.17	2439.5
1358.9	2450
1358.63	2509.5
1358.36	2478
1358.09	2456
1357.82	2518.25
1357.56	2421.75
1357.29	2363
1357.02	2448.5
1356.75	2454.5
1356.48	2480
1356.21	2482.5
1355.94	2508.75
1355.67	2438.25
1355.4	2470.5
1355.14	2378.5
1354.87	2413.75
1354.6	2458.25
1354.33	2478.25
1354.06	2410.5
1353.79	2417.75
1353.52	2420.25
1353.25	2444.75
1352.99	2432.25
1352.72	2425.25
1352.45	2417.75
1352.18	2454.25
1351.91	2443.5
1351.64	2394.25
1351.37	2367.25
1351.1	2383.75
1350.83	2440
1350.57	2350.5
1350.3	2465.25
1350.03	2433.75
1349.76	2392.5
1349.49	2435.5
1349.22	2461
1348.95	2404.5
1348.68	2365.5
1348.41	2371.75
1348.14	2406.75
1347.87	2466
1347.6	2408.5
1347.33	2433
1347.06	2446.75
1346.8	2438.5
1346.53	2361
1346.26	2377.25
1345.99	2398
1345.72	2399.25
1345.45	2452.25
1345.18	2440.5
1344.91	2429
1344.64	2374.5
1344.37	2407
1344.1	2420.25
1343.83	2384.5
1343.56	2418
1343.3	2408
1343.03	2444.75
1342.76	2454.5
1342.49	2423.75
1342.22	2413.25
1341.95	2386.75
1341.68	2399
1341.41	2332.25
1341.14	2425
1340.87	2430.5
1340.6	2369.75
1340.33	2421.25
1340.06	2427.75
1339.79	2384
1339.52	2388.75
1339.25	2422.25
1338.98	2436.25
1338.72	2426.25
1338.45	2507.5
1338.18	2365.5
1337.91	2376.75
1337.64	2402.5
1337.37	2399.5
1337.1	2364.75
1336.83	2360
1336.56	2390.5
1336.29	2396
1336.02	2401.25
1335.75	2395.5
1335.48	2353.75
1335.21	2352
1334.94	2381
1334.67	2439.5
1334.4	2397.5
1334.13	2422.75
1333.86	2401.75
1333.59	2403.5
1333.32	2421.75
1333.05	2345.5
1332.78	2365.25
1332.51	2445.75
1332.24	2358.75
1331.97	2393.25
1331.7	2418.25
1331.43	2302.75
1331.16	2307.5
1330.89	2422.75
1330.62	2348
1330.35	2327.75
1330.08	2334.75
1329.81	2370.75
1329.54	2396
1329.27	2359
1329	2346
1328.73	2373
1328.46	2383.25
1328.19	2349
1327.92	2400
1327.65	2411.25
1327.38	2351.75
1327.11	2441
1326.84	2407.5
1326.57	2371
1326.3	2397.5
1326.03	2390.75
1325.76	2375.25
1325.49	2375
1325.22	2398.75
1324.95	2346.5
1324.68	2364
1324.41	2338
1324.14	2372
1323.87	2333.75
1323.6	2363.25
1323.33	2394.25
1323.06	2324.5
1322.79	2425.5
1322.52	2379
1322.25	2373.5
1321.98	2360
1321.71	2370.25
1321.43	2343.75
1321.16	2408
1320.89	2331.25
1320.62	2350.25
1320.35	2337.75
1320.08	2323.25
1319.81	2385.25
1319.54	2384
1319.27	2391
1319	2336.5
1318.73	2446.25
1318.46	2363.5
1318.19	2358.75
1317.92	2310.25
1317.65	2394
1317.38	2346.75
1317.11	2382.25
1316.84	2352.25
1316.57	2377.5
1316.29	2381.25
1316.02	2402.75
1315.75	2339
1315.48	2331
1315.21	2316
1314.94	2360.25
1314.67	2373.5
1314.4	2347.75
1314.13	2416
1313.86	2340.75
1313.59	2343.75
1313.32	2314.5
1313.05	2282
1312.78	2353
1312.5	2344
1312.23	2334.5
1311.96	2392.75
1311.69	2413.75
1311.42	2338.75
1311.15	2352
1310.88	2323.75
1310.61	2348
1310.34	2352.5
1310.07	2356.5
1309.8	2355.25
1309.52	2327.75
1309.25	2353.25
1308.98	2338.25
1308.71	2341
1308.44	2361
1308.17	2305.5
1307.9	2375
1307.63	2363
1307.36	2346.5
1307.09	2302
1306.82	2317.5
1306.54	2293.5
1306.27	2333.75
1306	2323.25
1305.73	2369.75
1305.46	2312
1305.19	2369
1304.92	2371.75
1304.65	2392.75
1304.38	2301
1304.1	2382.25
1303.83	2313.25
1303.56	2391.25
1303.29	2360.25
1303.02	2309.5
1302.75	2332.25
1302.48	2342
1302.21	2315.75
1301.93	2356
1301.66	2316.5
1301.39	2350
1301.12	2349.75
1300.85	2348.5
1300.58	2333.5
1300.31	2327.75
1300.04	2298.75
1299.76	2350.5
1299.49	2342
1299.22	2342.75
1298.95	2331.25
1298.68	2352.75
1298.41	2371.75
1298.13	2334.25
1297.86	2297.5
1297.59	2302.5
1297.32	2306.75
1297.05	2288
1296.78	2389
1296.51	2271.5
1296.23	2337
1295.96	2346.75
1295.69	2319
1295.42	2275.25
1295.15	2280.75
1294.88	2362
1294.6	2345.75
1294.33	2359.75
1294.06	2302.25
1293.79	2340.25
1293.52	2339.5
1293.25	2296.75
1292.97	2307.5
1292.7	2324.75
1292.43	2317
1292.16	2309
1291.89	2330.25
1291.62	2305
1291.34	2332.25
1291.07	2346.25
1290.8	2337.5
1290.53	2327.25
1290.26	2318.5
1289.99	2308.5
1289.71	2298.75
1289.44	2353.5
1289.17	2376
1288.9	2285.75
1288.63	2307.5
1288.35	2288.25
1288.08	2317.5
1287.81	2389.25
1287.54	2335
1287.27	2315.5
1286.99	2331.25
1286.72	2311.75
1286.45	2277
1286.18	2302.5
1285.9	2347.25
1285.63	2338.75
1285.36	2343.5
1285.09	2294.75
1284.82	2298.75
1284.55	2276.25
1284.27	2299.25
1284	2303
1283.73	2310.25
1283.46	2307.5
1283.19	2299.25
1282.91	2293.5
1282.64	2272.25
1282.37	2322.5
1282.1	2329.5
1281.82	2331.5
1281.55	2329.75
1281.28	2351.5
1281.01	2319.5
1280.73	2305.25
1280.46	2300.25
1280.19	2274.5
1279.92	2278.75
1279.64	2346.25
1279.37	2350.5
1279.1	2353.75
1278.83	2296.25
1278.56	2332.5
1278.28	2311.25
1278.01	2307
1277.74	2307.25
1277.47	2341.25
1277.19	2349.25
1276.92	2266
1276.65	2315
1276.38	2297.75
1276.1	2291
1275.83	2294.25
1275.56	2266.5
1275.29	2297
1275.01	2319
1274.74	2390.5
1274.47	2296.5
1274.2	2358
1273.92	2345
1273.65	2273.75
1273.38	2313.5
1273.11	2324.75
1272.83	2384.75
1272.56	2309.25
1272.29	2299.5
1272.02	2326.5
1271.74	2303.25
1271.47	2284
1271.2	2343.25
1270.92	2335.25
1270.65	2363.75
1270.38	2301.25
1270.11	2324.75
1269.83	2336.5
1269.56	2346.75
1269.29	2307
1269.01	2312.75
1268.74	2332
1268.47	2267
1268.2	2304.5
1267.92	2327.25
1267.65	2379.5
1267.38	2312.5
1267.1	2299.25
1266.83	2306.5
1266.56	2279.5
1266.29	2361
1266.01	2368.75
1265.74	2293.25
1265.47	2384.5
1265.19	2273.25
1264.92	2319.25
1264.65	2292.25
1264.37	2320
1264.1	2341.75
1263.83	2342.5
1263.55	2350.75
1263.28	2279.75
1263.01	2303.5
1262.74	2301.5
1262.46	2287.5
1262.19	2269.25
1261.92	2349.75
1261.64	2257.5
1261.37	2340.75
1261.1	2353.75
1260.82	2265
1260.55	2342.25
1260.28	2282.5
1260	2310
1259.73	2338.75
1259.46	2356.5
1259.18	2399
1258.91	2299.75
1258.64	2281.75
1258.37	2303.75
1258.09	2308
1257.82	2355.75
1257.55	2329
1257.27	2354.25
1257	2350
1256.72	2272.75
1256.45	2273.5
1256.18	2334.75
1255.9	2340.75
1255.63	2399.75
1255.36	2346.25
1255.08	2365.75
1254.81	2292.5
1254.54	2267.5
1254.26	2309.5
1253.99	2263
1253.72	2366.25
1253.44	2326
1253.17	2330.75
1252.9	2333.25
1252.62	2374.5
1252.35	2309.75
1252.07	2339.25
1251.8	2340.5
1251.53	2367
1251.25	2293.25
1250.98	2323.5
1250.71	2311.5
1250.43	2292.5
1250.16	2354.25
1249.89	2339.5
1249.61	2387
1249.34	2323.25
1249.06	2317
1248.79	2325
1248.52	2358
1248.24	2374.75
1247.97	2360
1247.7	2341.25
1247.42	2318.25
1247.15	2330.5
1246.88	2294
1246.6	2325.75
1246.33	2324
1246.05	2363.75
1245.78	2335.25
1245.5	2323.25
1245.23	2317
1244.96	2309.25
1244.68	2300.75
1244.41	2351
1244.14	2335.75
1243.86	2351.5
1243.59	2346.75
1243.31	2359.5
1243.04	2323
1242.77	2303
1242.49	2371.25
1242.22	2347.75
1241.94	2377.75
1241.67	2391.75
1241.39	2356.5
1241.12	2310.5
1240.85	2365.75
1240.57	2373.75
1240.3	2384.75
1240.02	2402
1239.75	2386.75
1239.48	2361.75
1239.2	2381
1238.93	2353.5
1238.65	2330.75
1238.38	2362.25
1238.1	2339.75
1237.83	2354.5
1237.56	2300
1237.28	2398.75
1237.01	2324
1236.73	2344.5
1236.46	2317.5
1236.18	2318.75
1235.91	2355.75
1235.64	2358.5
1235.36	2328.5
1235.09	2345.25
1234.81	2352.25
1234.54	2362
1234.26	2356.75
1233.99	2354.5
1233.71	2407.25
1233.44	2394.75
1233.17	2327.75
1232.89	2374.5
1232.62	2360.75
1232.34	2365.25
1232.07	2286.25
1231.79	2326.25
1231.52	2350.25
1231.24	2338.25
1230.97	2393.25
1230.69	2373.5
1230.42	2395.75
1230.15	2372.5
1229.87	2333.5
1229.6	2409
1229.32	2357
1229.05	2351.75
1228.77	2335.75
1228.5	2351.25
1228.22	2413.75
1227.95	2383.75
1227.67	2358.25
1227.4	2323.25
1227.12	2350.25
1226.85	2357.25
1226.58	2364.75
1226.3	2355
1226.03	2342.25
1225.75	2396.5
1225.48	2317
1225.2	2289.75
1224.92	2341.5
1224.65	2342.25
1224.38	2389.75
1224.1	2378.5
1223.83	2419.5
1223.55	2328.75
1223.28	2359
1223	2381.75
1222.73	2387.75
1222.45	2387.5
1222.18	2346.5
1221.9	2395.75
1221.63	2367.75
1221.35	2317
1221.08	2357.5
1220.8	2367
1220.53	2345.5
1220.25	2366.75
1219.98	2345
1219.7	2340
1219.43	2307.25
1219.15	2355.5
1218.88	2343.75
1218.6	2345
1218.33	2334.75
1218.05	2397.5
1217.77	2376.25
1217.5	2392.5
1217.22	2384.75
1216.95	2367.75
1216.67	2387.5
1216.4	2318
1216.12	2358
1215.85	2400
1215.57	2381.25
1215.3	2323.75
1215.02	2365.75
1214.75	2324.75
1214.47	2386.75
1214.2	2352.25
1213.92	2331.75
1213.65	2355.75
1213.37	2339
1213.09	2372.75
1212.82	2340.5
1212.54	2374.75
1212.27	2371.5
1211.99	2372.75
1211.72	2339.75
1211.44	2357.25
1211.17	2413
1210.89	2377.25
1210.62	2356
1210.34	2340.75
1210.07	2307.25
1209.79	2342.5
1209.51	2307.25
1209.24	2304.25
1208.96	2353.5
1208.69	2394.75
1208.41	2393.25
1208.14	2366
1207.86	2332.5
1207.58	2326.25
1207.31	2382
1207.03	2285.5
1206.76	2318.75
1206.48	2311.75
1206.21	2389.5
1205.93	2376.5
1205.65	2392.5
1205.38	2419.25
1205.1	2337
1204.83	2363
1204.55	2344.75
1204.27	2375.75
1204	2372
1203.72	2355.25
1203.45	2353.5
1203.17	2389.25
1202.9	2305.5
1202.62	2396.5
1202.34	2379
1202.07	2405
1201.79	2372.75
1201.52	2363.25
1201.24	2397.5
1200.96	2353.25
1200.69	2393.75
1200.41	2348.5
1200.14	2332.5
1199.86	2404.5
1199.58	2353.25
1199.31	2366.75
1199.03	2395.25
1198.76	2351
1198.48	2358
1198.2	2342
1197.93	2352.5
1197.65	2421.75
1197.38	2348.75
1197.1	2369.5
1196.82	2334.5
1196.55	2353.5
1196.27	2370.5
1196	2354.25
1195.72	2382.25
1195.44	2348.25
1195.17	2370.25
1194.89	2337
1194.61	2359.5
1194.34	2421.25
1194.06	2373.75
1193.78	2416.5
1193.51	2365.25
1193.23	2415.5
1192.95	2402.25
1192.68	2389.5
1192.4	2350.75
1192.13	2344.75
1191.85	2378.75
1191.57	2356.25
1191.3	2395
1191.02	2443
1190.74	2425.5
1190.47	2370.75
1190.19	2346
1189.91	2375.5
1189.64	2415.25
1189.36	2401.5
1189.09	2410.75
1188.81	2402.5
1188.53	2445.25
1188.26	2440
1187.98	2393.75
1187.7	2369.5
1187.43	2389.25
1187.15	2400.75
1186.87	2444.75
1186.6	2450.75
1186.32	2450
1186.04	2445.5
1185.77	2452.5
1185.49	2381
1185.21	2438
1184.94	2366
1184.66	2447.25
1184.38	2426.75
1184.11	2416
1183.83	2401.25
1183.55	2424.75
1183.28	2397
1183	2462.25
1182.72	2451.75
1182.44	2394
1182.17	2442.5
1181.89	2427.75
1181.61	2422
1181.34	2397.5
1181.06	2399
1180.78	2446.25
1180.51	2427.5
1180.23	2443.5
1179.95	2432.5
1179.68	2414
1179.4	2448.5
1179.12	2406.25
1178.85	2397.5
1178.57	2418
1178.29	2439.5
1178.01	2406.5
1177.74	2427.25
1177.46	2436.25
1177.18	2414
1176.91	2411.75
1176.63	2434.25
1176.35	2400
1176.07	2461.25
1175.8	2484.5
1175.52	2437.5
1175.24	2448
1174.97	2437.25
1174.69	2404.25
1174.41	2430.25
1174.14	2391
1173.86	2464.5
1173.58	2442
1173.3	2441.5
1173.02	2399.25
1172.75	2416.5
1172.47	2421.75
1172.19	2440.75
1171.92	2391.5
1171.64	2439.5
1171.36	2467
1171.09	2467
1170.81	2504.5
1170.53	2519.75
1170.25	2478.5
1169.97	2464.5
1169.7	2380
1169.42	2464.5
1169.14	2441.25
1168.86	2500
1168.59	2449.25
1168.31	2452
1168.03	2456.5
1167.76	2411.5
1167.48	2421.5
1167.2	2466.75
1166.92	2482
1166.65	2477.25
1166.37	2441
1166.09	2444
1165.81	2443
1165.53	2430
1165.26	2424.5
1164.98	2522.5
1164.7	2493.25
1164.42	2480.25
1164.15	2500.5
1163.87	2452.75
1163.59	2461
1163.31	2503.25
1163.04	2483
1162.76	2492.75
1162.48	2445.75
1162.2	2543.75
1161.92	2507.75
1161.65	2475.75
1161.37	2477.25
1161.09	2433
1160.81	2490
1160.54	2528.75
1160.26	2503.5
1159.98	2495.75
1159.7	2506
1159.42	2451.25
1159.15	2518.5
1158.87	2506
1158.59	2562
1158.31	2545
1158.04	2484.25
1157.76	2527.75
1157.48	2528
1157.2	2543.25
1156.92	2559.25
1156.65	2580.75
1156.37	2548.75
1156.09	2539.25
1155.81	2610.5
1155.53	2534
1155.25	2525
1154.98	2538.25
1154.7	2510.25
1154.42	2528
1154.14	2507
1153.86	2573.5
1153.59	2613
1153.31	2498.5
1153.03	2584
1152.75	2567.75
1152.47	2585
1152.19	2605
1151.92	2623.75
1151.64	2617.75
1151.36	2540
1151.08	2648
1150.8	2572
1150.52	2575
1150.25	2569.25
1149.97	2575.5
1149.69	2641
1149.41	2707.75
1149.13	2666
1148.86	2597.25
1148.58	2622.5
1148.3	2587.25
1148.02	2615.25
1147.74	2624
1147.46	2590.5
1147.18	2647
1146.91	2670.25
1146.63	2613.25
1146.35	2660.25
1146.07	2623.75
1145.79	2587.75
1145.51	2686.5
1145.24	2663.25
1144.96	2649.5
1144.68	2695.5
1144.4	2654.25
1144.12	2674.5
1143.84	2683.75
1143.56	2647
1143.28	2683
1143.01	2695.75
1142.73	2684.5
1142.45	2692
1142.17	2674
1141.89	2613.5
1141.61	2692.5
1141.33	2683.25
1141.06	2727.25
1140.78	2759.75
1140.5	2755.5
1140.22	2688.75
1139.94	2735.5
1139.66	2699
1139.38	2699.25
1139.1	2720.25
1138.83	2700
1138.55	2709.75
1138.27	2757
1137.99	2723.75
1137.71	2709.25
1137.43	2683.75
1137.15	2748
1136.87	2744.5
1136.59	2708.5
1136.31	2721.5
1136.04	2753.5
1135.76	2745.25
1135.48	2765.5
1135.2	2778.25
1134.92	2738.5
1134.64	2710
1134.36	2740.25
1134.08	2745.25
1133.8	2743.25
1133.52	2747
1133.25	2757.5
1132.97	2781.5
1132.69	2693.5
1132.41	2795
1132.13	2755.5
1131.85	2794.25
1131.57	2775.25
1131.29	2801.5
1131.01	2790.25
1130.73	2789.25
1130.45	2782.25
1130.17	2748.25
1129.9	2767
1129.62	2838
1129.34	2775.25
1129.06	2760.75
1128.78	2824.75
1128.5	2813.25
1128.22	2771.25
1127.94	2791
1127.66	2795
1127.38	2851.5
1127.1	2795
1126.82	2816
1126.54	2791
1126.26	2803.5
1125.98	2856.5
1125.7	2800.25
1125.43	2829
1125.15	2871
1124.87	2832.5
1124.59	2815.5
1124.31	2838.25
1124.03	2785.75
1123.75	2769.25
1123.47	2714.25
1123.19	2852.75
1122.91	2818.75
1122.63	2787.75
1122.35	2786.25
1122.07	2781.75
1121.79	2784.75
1121.51	2808.75
1121.23	2810.25
1120.95	2816
1120.67	2815.5
1120.39	2891
1120.11	2773.5
1119.83	2788
1119.55	2770.5
1119.27	2803.75
1118.99	2812.75
1118.72	2841
1118.43	2819
1118.15	2782
1117.88	2826
1117.6	2780.5
1117.32	2807.25
1117.04	2809
1116.76	2812.5
1116.48	2796.25
1116.2	2822
1115.92	2846.5
1115.64	2797.75
1115.36	2768.75
1115.08	2804.25
1114.8	2793.5
1114.52	2836.75
1114.24	2840.75
1113.96	2817.5
1113.68	2815.75
1113.4	2818
1113.12	2844.5
1112.84	2797.75
1112.56	2820
1112.28	2812.75
1112	2825.5
1111.72	2851.25
1111.44	2816.75
1111.16	2784
1110.88	2744
1110.6	2792.25
1110.32	2848
1110.03	2820
1109.76	2776
1109.48	2844.25
1109.19	2755
1108.91	2769.25
1108.64	2755.25
1108.35	2710.75
1108.07	2768.25
1107.79	2761
1107.51	2761
1107.23	2775.25
1106.95	2755.25
1106.67	2752.5
1106.39	2749
1106.11	2747.5
1105.83	2822.75
1105.55	2752.75
1105.27	2790
1104.99	2759.75
1104.71	2749
1104.43	2704.25
1104.15	2727.25
1103.87	2772.25
1103.59	2719.25
1103.31	2757.75
1103.03	2758.25
1102.75	2720.75
1102.47	2693
1102.18	2689.5
1101.91	2721
1101.62	2695.75
1101.34	2716
1101.06	2734
1100.78	2664.75
1100.5	2751.25
1100.22	2690.5
1099.94	2706.5
1099.66	2677.25
1099.38	2687.5
1099.1	2739.5
1098.82	2703.5
1098.54	2730.75
1098.26	2738
1097.98	2692.25
1097.7	2742.75
1097.41	2653
1097.13	2716.5
1096.85	2736
1096.57	2727
1096.29	2687.25
1096.01	2695
1095.73	2721.25
1095.45	2658.75
1095.17	2658
1094.89	2632
1094.61	2681.5
1094.33	2726.25
1094.04	2643.5
1093.76	2705.75
1093.48	2664
1093.2	2622.25
1092.92	2662.75
1092.64	2663.25
1092.36	2701.25
1092.08	2684.25
1091.8	2698.25
1091.52	2661.75
1091.23	2672.5
1090.95	2598.5
1090.67	2656.75
1090.39	2687.25
1090.11	2661.5
1089.83	2646
1089.55	2585.5
1089.27	2622.25
1088.99	2570.25
1088.71	2596.5
1088.42	2576.25
1088.14	2679.5
1087.86	2602.5
1087.58	2645.25
1087.3	2597.5
1087.02	2604
1086.74	2607.25
1086.46	2561.5
1086.17	2615.25
1085.89	2656.25
1085.61	2584
1085.33	2636.75
1085.05	2596.75
1084.77	2580
1084.49	2550.5
1084.2	2505
1083.92	2506.75
1083.64	2587.5
1083.36	2650.75
1083.08	2583.25
1082.8	2541.75
1082.52	2565.5
1082.23	2546
1081.95	2576.75
1081.67	2616
1081.39	2631.75
1081.11	2586.25
1080.83	2561.5
1080.55	2579.5
1080.27	2523.75
1079.98	2518.75
1079.7	2571.75
1079.42	2551.25
1079.14	2546.5
1078.86	2561
1078.58	2550
1078.29	2503.25
1078.01	2564.75
1077.73	2502
1077.45	2506.25
1077.17	2583
1076.89	2586
1076.6	2587.5
1076.32	2562.5
1076.04	2537
1075.76	2539.5
1075.48	2526.25
1075.2	2489
1074.91	2487.75
1074.63	2521.5
1074.35	2487.75
1074.07	2478.25
1073.79	2455
1073.5	2539.25
1073.22	2511.75
1072.94	2520.25
1072.66	2506
1072.38	2522.5
1072.09	2522.25
1071.81	2498
1071.53	2495.75
1071.25	2429.5
1070.97	2532.5
1070.68	2471.25
1070.4	2507.25
1070.12	2534.25
1069.84	2487
1069.56	2457.25
1069.27	2410.75
1068.99	2483.5
1068.71	2478.5
1068.43	2387.25
1068.15	2431
1067.86	2451.75
1067.58	2448.25
1067.3	2441.75
1067.02	2462.5
1066.73	2465.5
1066.45	2462.75
1066.17	2488
1065.89	2454.5
1065.61	2471.75
1065.32	2470.75
1065.04	2476.75
1064.76	2493.25
1064.48	2461.75
1064.19	2500
1063.91	2538.25
1063.63	2422.5
1063.35	2491
1063.07	2506.5
1062.78	2485.25
1062.5	2445.75
1062.22	2500
1061.94	2496
1061.66	2457.75
1061.37	2541
1061.09	2516.25
1060.81	2493.5
1060.52	2449.25
1060.24	2498.25
1059.96	2497.25
1059.68	2514.5
1059.4	2473
1059.11	2526.75
1058.83	2502.25
1058.55	2460.75
1058.26	2524.5
1057.98	2505.75
1057.7	2520.5
1057.42	2554
1057.13	2521
1056.85	2509
1056.57	2465.25
1056.29	2415
1056	2532.25
1055.72	2516.75
1055.44	2487.25
1055.16	2505
1054.87	2518.25
1054.59	2475.5
1054.31	2501.5
1054.03	2464.25
1053.74	2472.25
1053.46	2536.75
1053.18	2517.25
1052.89	2584.75
1052.61	2495
1052.33	2485.75
1052.04	2477.5
1051.76	2481.75
1051.48	2514.5
1051.2	2504.25
1050.91	2502.25
1050.63	2513.25
1050.35	2481.25
1050.06	2483
1049.78	2471.25
1049.5	2477
1049.22	2502.75
1048.93	2532.5
1048.65	2531.75
1048.37	2525.25
1048.08	2525
1047.8	2501.25
1047.52	2511.5
1047.24	2527.25
1046.95	2469.5
1046.67	2485.25
1046.39	2453.25
1046.1	2516.25
1045.82	2513
1045.54	2443
1045.25	2441.75
1044.97	2432.5
1044.69	2506
1044.4	2430.75
1044.12	2473.25
1043.84	2427.75
1043.55	2529.75
1043.27	2498
1042.99	2430.5
1042.7	2466.75
1042.42	2465.5
1042.14	2461.75
1041.85	2464
1041.57	2508.25
1041.29	2473.25
1041.01	2503.25
1040.72	2488
1040.44	2472.5
1040.15	2472.25
1039.87	2489.75
1039.59	2458.25
1039.3	2448.75
1039.02	2451.5
1038.74	2467.5
1038.45	2453.25
1038.17	2491.5
1037.89	2439.5
1037.6	2489.5
1037.32	2483.75
1037.04	2489
1036.75	2475
1036.47	2477.25
1036.19	2428
1035.9	2465
1035.62	2494.75
1035.34	2492.25
1035.05	2504.25
1034.77	2458
1034.48	2451.75
1034.2	2474.25
1033.92	2487.75
1033.63	2510.5
1033.35	2444.5
1033.07	2500.75
1032.78	2456.5
1032.5	2435
1032.21	2472
1031.93	2475.75
1031.65	2482.5
1031.36	2451.5
1031.08	2437.5
1030.8	2441.5
1030.51	2441
1030.23	2429
1029.94	2467
1029.66	2450
1029.38	2456
1029.09	2511.25
1028.81	2467.5
1028.52	2466.5
1028.24	2474.5
1027.96	2500.75
1027.67	2428.5
1027.39	2464.25
1027.1	2457.75
1026.82	2523.25
1026.54	2535.75
1026.25	2451.25
1025.97	2448
1025.68	2486
1025.4	2390.75
1025.12	2460.25
1024.83	2456
1024.55	2459.5
1024.26	2481.5
1023.98	2403.25
1023.7	2454
1023.41	2441.5
1023.13	2425
1022.84	2460.5
1022.56	2434
1022.28	2476.25
1021.99	2503.75
1021.71	2406.25
1021.42	2449.5
1021.14	2488.75
1020.85	2473
1020.57	2493.25
1020.29	2407.25
1020	2408.25
1019.72	2425
1019.43	2484
1019.15	2457.75
1018.86	2477.5
1018.58	2479.25
1018.3	2470.25
1018.01	2481.75
1017.73	2465
1017.44	2425
1017.16	2480.75
1016.87	2473.5
1016.59	2443.75
1016.3	2462.25
