#Acq. time (s)=	55
#Accumulations=	2
#Range=	Off
#Autofocus=	Off
#Macrospot=	Off
#AutoExposure=	Off
#Spike filter=	Multiple accum.
#Delay time (s)=	0
#Binning=	1
#Readout mode=	Signal
#DeNoise=	Off
#ICS correction=	Off
#Dark correction=	Off
#Inst. Process=	Off
#Instrument=	LabRAM HR Evol
#Detector=	Andor CCD
#Objective=	x100 LWD
#Grating=	1800 gr/mm
#ND Filter=	100%
#Laser (nm)=	532 
#Spectro (cm-¹)=	1240.02
#Hole=	49.98
#Range=	Visible
#AFM=	Off
#StageXY=	Marzhauser
#StageZ=	Marzhauser
#X (µm)=	-15776.2
#Y (µm)=	-1015.1
#Z (µm)=	-314.4
#Project=	
#Sample=	
#Site=	
#Title=	Ne3
#Remark=	
#Date=	06.05.2022 09:38
#Acquired=	06.05.2022 09:38:44
1454.81	133
1454.54	138
1454.28	139
1454.02	139
1453.75	135
1453.49	143
1453.22	126
1452.96	139
1452.69	152
1452.43	144
1452.16	143
1451.9	133
1451.64	154
1451.37	147
1451.11	141
1450.84	169
1450.58	162
1450.31	160
1450.05	176
1449.79	169
1449.52	177
1449.26	192
1448.99	208
1448.73	223
1448.46	244
1448.2	249
1447.93	318
1447.67	402
1447.4	808
1447.14	2791
1446.88	13338
1446.61	33155
1446.35	44831
1446.08	43319
1445.82	26392
1445.55	9604
1445.29	3767
1445.02	2424
1444.76	1524
1444.49	789
1444.23	398
1443.97	302
1443.7	273
1443.44	278
1443.17	221
1442.91	234
1442.64	210
1442.38	204
1442.11	184
1441.85	195
1441.58	185
1441.32	177
1441.05	187
1440.79	159
1440.52	183
1440.26	162
1439.99	163
1439.73	164
1439.46	161
1439.2	142
1438.93	176
1438.67	162
1438.4	148
1438.14	156
1437.87	134
1437.61	125
1437.34	143
1437.08	130
1436.81	132
1436.55	129
1436.28	130
1436.02	158
1435.75	156
1435.49	282
1435.22	703
1434.96	1257
1434.69	1402
1434.43	1078
1434.16	549
1433.9	277
1433.63	168
1433.37	156
1433.1	126
1432.84	146
1432.57	131
1432.31	131
1432.04	134
1431.78	137
1431.51	123
1431.25	135
1430.98	126
1430.71	106
1430.45	136
1430.18	117
1429.92	123
1429.65	129
1429.39	109
1429.12	130
1428.86	118
1428.59	129
1428.33	128
1428.06	114
1427.8	128
1427.53	117
1427.26	115
1427	121
1426.73	119
1426.47	137
1426.2	123
1425.94	115
1425.67	104
1425.41	127
1425.14	116
1424.88	121
1424.61	116
1424.34	122
1424.08	126
1423.81	117
1423.55	115
1423.28	135
1423.02	121
1422.75	113
1422.49	116
1422.22	112
1421.95	122
1421.69	126
1421.42	153
1421.16	127
1420.89	120
1420.62	123
1420.36	123
1420.09	130
1419.83	125
1419.56	112
1419.3	123
1419.03	124
1418.76	119
1418.5	107
1418.23	115
1417.97	127
1417.7	113
1417.43	113
1417.17	121
1416.9	119
1416.64	116
1416.37	103
1416.1	101
1415.84	128
1415.57	117
1415.31	135
1415.04	135
1414.77	118
1414.51	109
1414.24	108
1413.98	121
1413.71	96
1413.44	121
1413.18	143
1412.91	121
1412.65	120
1412.38	131
1412.11	125
1411.85	128
1411.58	131
1411.32	108
1411.05	118
1410.78	126
1410.52	115
1410.25	122
1409.98	110
1409.72	124
1409.45	122
1409.18	109
1408.92	114
1408.65	125
1408.39	114
1408.12	129
1407.85	104
1407.59	112
1407.32	112
1407.05	131
1406.79	116
1406.52	113
1406.25	122
1405.99	123
1405.72	126
1405.46	100
1405.19	125
1404.92	103
1404.66	93
1404.39	109
1404.12	116
1403.86	116
1403.59	129
1403.32	141
1403.06	116
1402.79	116
1402.52	133
1402.26	127
1401.99	124
1401.72	120
1401.46	125
1401.19	118
1400.92	126
1400.66	126
1400.39	132
1400.12	141
1399.86	148
1399.59	183
1399.32	303
1399.06	563
1398.79	811
1398.52	1158
1398.26	3145
1397.99	7402
1397.72	10325
1397.46	9455
1397.19	5578
1396.92	1891
1396.66	556
1396.39	246
1396.12	171
1395.85	164
1395.59	154
1395.32	147
1395.05	144
1394.79	135
1394.52	129
1394.25	127
1393.98	142
1393.72	128
1393.45	122
1393.18	143
1392.92	127
1392.65	135
1392.38	116
1392.12	123
1391.85	123
1391.58	106
1391.31	136
1391.05	117
1390.78	133
1390.51	112
1390.24	123
1389.98	120
1389.71	118
1389.44	141
1389.18	109
1388.91	127
1388.64	116
1388.38	116
1388.11	121
1387.84	111
1387.57	99
1387.31	111
1387.04	120
1386.77	101
1386.5	138
1386.24	138
1385.97	105
1385.7	104
1385.43	123
1385.17	112
1384.9	120
1384.63	119
1384.36	142
1384.1	123
1383.83	116
1383.56	120
1383.29	113
1383.03	122
1382.76	115
1382.49	121
1382.22	119
1381.96	121
1381.69	110
1381.42	134
1381.15	117
1380.89	122
1380.62	120
1380.35	105
1380.08	116
1379.82	115
1379.55	123
1379.28	97
1379.01	114
1378.74	131
1378.48	112
1378.21	109
1377.94	127
1377.67	125
1377.41	109
1377.14	131
1376.87	109
1376.6	97
1376.33	126
1376.07	101
1375.8	126
1375.53	127
1375.26	122
1374.99	123
1374.73	120
1374.46	116
1374.19	102
1373.92	105
1373.66	111
1373.39	120
1373.12	125
1372.85	120
1372.58	123
1372.32	127
1372.05	146
1371.78	231
1371.51	522
1371.24	1019
1370.98	1215
1370.71	961
1370.44	586
1370.17	249
1369.9	164
1369.63	121
1369.37	145
1369.1	134
1368.83	121
1368.56	123
1368.29	134
1368.03	163
1367.76	200
1367.49	232
1367.22	194
1366.95	163
1366.68	125
1366.42	125
1366.15	128
1365.88	152
1365.61	128
1365.34	115
1365.07	113
1364.81	124
1364.54	102
1364.27	126
1364	116
1363.73	116
1363.46	106
1363.19	117
1362.93	113
1362.66	120
1362.39	121
1362.12	112
1361.85	116
1361.58	109
1361.32	110
1361.05	119
1360.78	120
1360.51	121
1360.24	106
1359.97	117
1359.71	118
1359.44	107
1359.17	124
1358.9	130
1358.63	122
1358.36	121
1358.09	116
1357.82	116
1357.56	131
1357.29	100
1357.02	131
1356.75	128
1356.48	113
1356.21	113
1355.94	88
1355.67	99
1355.4	112
1355.14	113
1354.87	100
1354.6	104
1354.33	121
1354.06	99
1353.79	95
1353.52	119
1353.25	111
1352.99	104
1352.72	102
1352.45	123
1352.18	109
1351.91	127
1351.64	120
1351.37	115
1351.1	115
1350.83	121
1350.57	119
1350.3	107
1350.03	111
1349.76	108
1349.49	119
1349.22	115
1348.95	116
1348.68	116
1348.41	117
1348.14	111
1347.87	110
1347.6	112
1347.33	134
1347.06	111
1346.8	114
1346.53	106
1346.26	107
1345.99	101
1345.72	132
1345.45	132
1345.18	132
1344.91	131
1344.64	101
1344.37	95
1344.1	126
1343.83	124
1343.56	109
1343.3	123
1343.03	116
1342.76	105
1342.49	128
1342.22	106
1341.95	114
1341.68	118
1341.41	94
1341.14	111
1340.87	102
1340.6	107
1340.33	101
1340.06	102
1339.79	105
1339.52	105
1339.25	101
1338.98	105
1338.72	111
1338.45	100
1338.18	121
1337.91	116
1337.64	116
1337.37	94
1337.1	99
1336.83	111
1336.56	104
1336.29	105
1336.02	134
1335.75	107
1335.48	118
1335.21	106
1334.94	89
1334.67	106
1334.4	120
1334.13	109
1333.86	107
1333.59	91
1333.32	130
1333.05	119
1332.78	103
1332.51	117
1332.24	111
1331.97	139
1331.7	95
1331.43	116
1331.16	111
1330.89	112
1330.62	96
1330.35	116
1330.08	111
1329.81	92
1329.54	110
1329.27	114
1329	108
1328.73	97
1328.46	121
1328.19	119
1327.92	108
1327.65	111
1327.38	111
1327.11	114
1326.84	106
1326.57	103
1326.3	115
1326.03	120
1325.76	98
1325.49	117
1325.22	115
1324.95	130
1324.68	115
1324.41	105
1324.14	100
1323.87	99
1323.6	115
1323.33	115
1323.06	108
1322.79	116
1322.52	110
1322.25	108
1321.98	119
1321.71	102
1321.43	89
1321.16	99
1320.89	126
1320.62	111
1320.35	104
1320.08	121
1319.81	120
1319.54	101
1319.27	127
1319	118
1318.73	112
1318.46	134
1318.19	109
1317.92	115
1317.65	126
1317.38	102
1317.11	103
1316.84	125
1316.57	112
1316.29	105
1316.02	118
1315.75	119
1315.48	118
1315.21	106
1314.94	110
1314.67	95
1314.4	120
1314.13	119
1313.86	99
1313.59	125
1313.32	103
1313.05	114
1312.78	99
1312.5	110
1312.23	118
1311.96	116
1311.69	110
1311.42	117
1311.15	123
1310.88	155
1310.61	264
1310.34	371
1310.07	466
1309.8	792
1309.52	1547
1309.25	2097
1308.98	1823
1308.71	1164
1308.44	677
1308.17	556
1307.9	478
1307.63	294
1307.36	178
1307.09	125
1306.82	125
1306.54	131
1306.27	132
1306	123
1305.73	123
1305.46	105
1305.19	107
1304.92	112
1304.65	111
1304.38	123
1304.1	140
1303.83	107
1303.56	108
1303.29	110
1303.02	117
1302.75	109
1302.48	111
1302.21	113
1301.93	104
1301.66	110
1301.39	104
1301.12	114
1300.85	122
1300.58	122
1300.31	115
1300.04	106
1299.76	112
1299.49	121
1299.22	107
1298.95	92
1298.68	107
1298.41	110
1298.13	115
1297.86	125
1297.59	145
1297.32	145
1297.05	168
1296.78	127
1296.51	125
1296.23	108
1295.96	110
1295.69	118
1295.42	113
1295.15	98
1294.88	94
1294.6	110
1294.33	109
1294.06	107
1293.79	141
1293.52	126
1293.25	108
1292.97	109
1292.7	105
1292.43	117
1292.16	100
1291.89	87
1291.62	112
1291.34	104
1291.07	111
1290.8	104
1290.53	104
1290.26	117
1289.99	106
1289.71	120
1289.44	94
1289.17	105
1288.9	141
1288.63	155
1288.35	152
1288.08	114
1287.81	134
1287.54	108
1287.27	111
1286.99	103
1286.72	105
1286.45	95
1286.18	97
1285.9	117
1285.63	130
1285.36	111
1285.09	116
1284.82	115
1284.55	99
1284.27	101
1284	115
1283.73	106
1283.46	110
1283.19	102
1282.91	113
1282.64	111
1282.37	104
1282.1	106
1281.82	118
1281.55	102
1281.28	97
1281.01	110
1280.73	104
1280.46	118
1280.19	117
1279.92	113
1279.64	98
1279.37	105
1279.1	111
1278.83	117
1278.56	90
1278.28	110
1278.01	111
1277.74	117
1277.47	127
1277.19	98
1276.92	106
1276.65	101
1276.38	135
1276.1	117
1275.83	107
1275.56	114
1275.29	117
1275.01	122
1274.74	121
1274.47	102
1274.2	97
1273.92	116
1273.65	117
1273.38	100
1273.11	117
1272.83	144
1272.56	122
1272.29	109
1272.02	97
1271.74	116
1271.47	122
1271.2	107
1270.92	85
1270.65	91
1270.38	107
1270.11	106
1269.83	111
1269.56	126
1269.29	122
1269.01	107
1268.74	120
1268.47	124
1268.2	103
1267.92	123
1267.65	91
1267.38	114
1267.1	104
1266.83	108
1266.56	116
1266.29	116
1266.01	111
1265.74	116
1265.47	101
1265.19	100
1264.92	120
1264.65	110
1264.37	108
1264.1	106
1263.83	107
1263.55	104
1263.28	98
1263.01	101
1262.74	108
1262.46	117
1262.19	122
1261.92	118
1261.64	111
1261.37	103
1261.1	120
1260.82	100
1260.55	109
1260.28	129
1260	114
1259.73	108
1259.46	101
1259.18	104
1258.91	114
1258.64	116
1258.37	103
1258.09	107
1257.82	100
1257.55	92
1257.27	106
1257	111
1256.72	106
1256.45	125
1256.18	124
1255.9	111
1255.63	127
1255.36	104
1255.08	114
1254.81	106
1254.54	122
1254.26	104
1253.99	113
1253.72	116
1253.44	133
1253.17	149
1252.9	211
1252.62	208
1252.35	156
1252.07	125
1251.8	118
1251.53	122
1251.25	124
1250.98	109
1250.71	105
1250.43	97
1250.16	113
1249.89	117
1249.61	114
1249.34	110
1249.06	99
1248.79	112
1248.52	122
1248.24	84
1247.97	107
1247.7	117
1247.42	119
1247.15	117
1246.88	119
1246.6	125
1246.33	112
1246.05	120
1245.78	121
1245.5	111
1245.23	111
1244.96	94
1244.68	123
1244.41	102
1244.14	125
1243.86	101
1243.59	118
1243.31	118
1243.04	98
1242.77	106
1242.49	109
1242.22	103
1241.94	107
1241.67	116
1241.39	116
1241.12	114
1240.85	110
1240.57	111
1240.3	120
1240.02	117
1239.75	131
1239.48	118
1239.2	121
1238.93	109
1238.65	113
1238.38	111
1238.1	110
1237.83	93
1237.56	111
1237.28	116
1237.01	114
1236.73	108
1236.46	112
1236.18	119
1235.91	111
1235.64	114
1235.36	103
1235.09	106
1234.81	117
1234.54	117
1234.26	118
1233.99	105
1233.71	101
1233.44	142
1233.17	118
1232.89	100
1232.62	115
1232.34	120
1232.07	103
1231.79	116
1231.52	108
1231.24	123
1230.97	132
1230.69	115
1230.42	128
1230.15	109
1229.87	121
1229.6	110
1229.32	116
1229.05	106
1228.77	124
1228.5	107
1228.22	111
1227.95	119
1227.67	128
1227.4	123
1227.12	133
1226.85	101
1226.58	114
1226.3	104
1226.03	99
1225.75	122
1225.48	101
1225.2	108
1224.92	92
1224.65	102
1224.38	114
1224.1	127
1223.83	102
1223.55	119
1223.28	96
1223	105
1222.73	99
1222.45	113
1222.18	116
1221.9	108
1221.63	98
1221.35	104
1221.08	122
1220.8	126
1220.53	128
1220.25	153
1219.98	157
1219.7	270
1219.43	645
1219.15	1710
1218.88	2773
1218.6	2847
1218.33	2000
1218.05	894
1217.77	378
1217.5	200
1217.22	155
1216.95	133
1216.67	132
1216.4	123
1216.12	133
1215.85	133
1215.57	123
1215.3	121
1215.02	129
1214.75	125
1214.47	124
1214.2	112
1213.92	114
1213.65	133
1213.37	121
1213.09	115
1212.82	121
1212.54	118
1212.27	101
1211.99	117
1211.72	124
1211.44	126
1211.17	134
1210.89	141
1210.62	127
1210.34	125
1210.07	102
1209.79	129
1209.51	118
1209.24	96
1208.96	128
1208.69	131
1208.41	103
1208.14	112
1207.86	111
1207.58	106
1207.31	121
1207.03	113
1206.76	134
1206.48	118
1206.21	116
1205.93	104
1205.65	111
1205.38	121
1205.1	116
1204.83	127
1204.55	108
1204.27	109
1204	111
1203.72	121
1203.45	126
1203.17	123
1202.9	129
1202.62	130
1202.34	120
1202.07	109
1201.79	129
1201.52	112
1201.24	117
1200.96	112
1200.69	130
1200.41	150
1200.14	165
1199.86	183
1199.58	155
1199.31	119
1199.03	137
1198.76	122
1198.48	121
1198.2	119
1197.93	121
1197.65	135
1197.38	139
1197.1	118
1196.82	126
1196.55	120
1196.27	101
1196	131
1195.72	119
1195.44	112
1195.17	118
1194.89	141
1194.61	294
1194.34	470
1194.06	529
1193.78	388
1193.51	203
1193.23	135
1192.95	124
1192.68	120
1192.4	127
1192.13	125
1191.85	112
1191.57	124
1191.3	130
1191.02	112
1190.74	121
1190.47	109
1190.19	119
1189.91	110
1189.64	113
1189.36	102
1189.09	127
1188.81	131
1188.53	121
1188.26	137
1187.98	105
1187.7	130
1187.43	136
1187.15	116
1186.87	132
1186.6	113
1186.32	130
1186.04	125
1185.77	119
1185.49	121
1185.21	108
1184.94	113
1184.66	128
1184.38	122
1184.11	113
1183.83	134
1183.55	139
1183.28	112
1183	130
1182.72	133
1182.44	113
1182.17	144
1181.89	113
1181.61	128
1181.34	119
1181.06	116
1180.78	108
1180.51	110
1180.23	118
1179.95	130
1179.68	140
1179.4	126
1179.12	117
1178.85	111
1178.57	114
1178.29	122
1178.01	112
1177.74	134
1177.46	115
1177.18	127
1176.91	123
1176.63	128
1176.35	128
1176.07	116
1175.8	119
1175.52	129
1175.24	121
1174.97	115
1174.69	128
1174.41	125
1174.14	109
1173.86	136
1173.58	124
1173.3	136
1173.02	120
1172.75	120
1172.47	127
1172.19	121
1171.92	119
1171.64	108
1171.36	140
1171.09	133
1170.81	120
1170.53	125
1170.25	107
1169.97	125
1169.7	120
1169.42	125
1169.14	141
1168.86	145
1168.59	130
1168.31	124
1168.03	115
1167.76	122
1167.48	135
1167.2	137
1166.92	133
1166.65	126
1166.37	124
1166.09	135
1165.81	134
1165.53	140
1165.26	115
1164.98	115
1164.7	134
1164.42	108
1164.15	125
1163.87	122
1163.59	118
1163.31	131
1163.04	119
1162.76	124
1162.48	135
1162.2	124
1161.92	113
1161.65	130
1161.37	141
1161.09	109
1160.81	130
1160.54	126
1160.26	128
1159.98	98
1159.7	142
1159.42	127
1159.15	111
1158.87	132
1158.59	132
1158.31	129
1158.04	137
1157.76	122
1157.48	129
1157.2	142
1156.92	115
1156.65	129
1156.37	146
1156.09	128
1155.81	123
1155.53	149
1155.25	124
1154.98	141
1154.7	122
1154.42	131
1154.14	138
1153.86	129
1153.59	145
1153.31	133
1153.03	127
1152.75	134
1152.47	139
1152.19	137
1151.92	134
1151.64	136
1151.36	131
1151.08	130
1150.8	119
1150.52	124
1150.25	131
1149.97	128
1149.69	127
1149.41	135
1149.13	130
1148.86	145
1148.58	132
1148.3	133
1148.02	134
1147.74	131
1147.46	129
1147.18	130
1146.91	124
1146.63	123
1146.35	135
1146.07	141
1145.79	154
1145.51	126
1145.24	127
1144.96	131
1144.68	144
1144.4	141
1144.12	147
1143.84	126
1143.56	131
1143.28	147
1143.01	139
1142.73	138
1142.45	160
1142.17	130
1141.89	139
1141.61	129
1141.33	130
1141.06	115
1140.78	142
1140.5	128
1140.22	136
1139.94	141
1139.66	132
1139.38	125
1139.1	136
1138.83	140
1138.55	134
1138.27	156
1137.99	121
1137.71	130
1137.43	136
1137.15	150
1136.87	149
1136.59	133
1136.31	147
1136.04	127
1135.76	143
1135.48	155
1135.2	159
1134.92	184
1134.64	345
1134.36	840
1134.08	1288
1133.8	1239
1133.52	756
1133.25	361
1132.97	183
1132.69	165
1132.41	147
1132.13	139
1131.85	143
1131.57	150
1131.29	144
1131.01	132
1130.73	132
1130.45	137
1130.17	137
1129.9	130
1129.62	151
1129.34	135
1129.06	137
1128.78	142
1128.5	164
1128.22	165
1127.94	149
1127.66	145
1127.38	146
1127.1	147
1126.82	154
1126.54	131
1126.26	147
1125.98	155
1125.7	142
1125.43	150
1125.15	139
1124.87	170
1124.59	135
1124.31	163
1124.03	157
1123.75	242
1123.47	322
1123.19	361
1122.91	276
1122.63	200
1122.35	166
1122.07	153
1121.79	144
1121.51	165
1121.23	138
1120.95	149
1120.67	163
1120.39	148
1120.11	146
1119.83	143
1119.55	137
1119.27	146
1118.99	164
1118.72	140
1118.43	158
1118.15	161
1117.88	166
1117.6	144
1117.32	197
1117.04	167
1116.76	207
1116.48	373
1116.2	1290
1115.92	3356
1115.64	4736
1115.36	3937
1115.08	2006
1114.8	588
1114.52	286
1114.24	301
1113.96	523
1113.68	769
1113.4	634
1113.12	397
1112.84	219
1112.56	169
1112.28	142
1112	134
1111.72	160
1111.44	148
1111.16	151
1110.88	148
1110.6	145
1110.32	147
1110.03	159
1109.76	155
1109.48	148
1109.19	142
1108.91	156
1108.64	164
1108.35	144
1108.07	146
1107.79	158
1107.51	168
1107.23	157
1106.95	146
1106.67	180
1106.39	143
1106.11	164
1105.83	166
1105.55	152
1105.27	147
1104.99	157
1104.71	154
1104.43	170
1104.15	153
1103.87	184
1103.59	221
1103.31	360
1103.03	750
1102.75	846
1102.47	661
1102.18	381
1101.91	216
1101.62	155
1101.34	171
1101.06	173
1100.78	164
1100.5	183
1100.22	155
1099.94	134
1099.66	163
1099.38	146
1099.1	151
1098.82	179
1098.54	169
1098.26	168
1097.98	184
1097.7	214
1097.41	386
1097.13	743
1096.85	854
1096.57	680
1096.29	397
1096.01	215
1095.73	193
1095.45	149
1095.17	143
1094.89	159
1094.61	167
1094.33	159
1094.04	176
1093.76	159
1093.48	173
1093.2	144
1092.92	168
1092.64	155
1092.36	139
1092.08	149
1091.8	164
1091.52	166
1091.23	168
1090.95	229
1090.67	312
1090.39	337
1090.11	250
1089.83	175
1089.55	159
1089.27	152
1088.99	164
1088.71	160
1088.42	156
1088.14	149
1087.86	157
1087.58	174
1087.3	164
1087.02	159
1086.74	153
1086.46	146
1086.17	156
1085.89	142
1085.61	191
1085.33	145
1085.05	148
1084.77	171
1084.49	135
1084.2	162
1083.92	159
1083.64	159
1083.36	156
1083.08	157
1082.8	162
1082.52	171
1082.23	156
1081.95	146
1081.67	152
1081.39	149
1081.11	166
1080.83	157
1080.55	162
1080.27	154
1079.98	157
1079.7	167
1079.42	153
1079.14	166
1078.86	134
1078.58	169
1078.29	148
1078.01	164
1077.73	164
1077.45	138
1077.17	156
1076.89	152
1076.6	164
1076.32	166
1076.04	165
1075.76	125
1075.48	150
1075.2	178
1074.91	144
1074.63	153
1074.35	185
1074.07	154
1073.79	181
1073.5	198
1073.22	171
1072.94	155
1072.66	138
1072.38	166
1072.09	172
1071.81	138
1071.53	152
1071.25	162
1070.97	167
1070.68	155
1070.4	166
1070.12	166
1069.84	133
1069.56	158
1069.27	150
1068.99	146
1068.71	137
1068.43	164
1068.15	197
1067.86	237
1067.58	295
1067.3	260
1067.02	197
1066.73	158
1066.45	162
1066.17	152
1065.89	158
1065.61	167
1065.32	137
1065.04	138
1064.76	155
1064.48	161
1064.19	161
1063.91	155
1063.63	138
1063.35	165
1063.07	158
1062.78	142
1062.5	150
1062.22	156
1061.94	130
1061.66	138
1061.37	143
1061.09	168
1060.81	203
1060.52	233
1060.24	213
1059.96	187
1059.68	151
1059.4	153
1059.11	144
1058.83	136
1058.55	152
1058.26	130
1057.98	142
1057.7	166
1057.42	153
1057.13	165
1056.85	140
1056.57	135
1056.29	151
1056	162
1055.72	147
1055.44	178
1055.16	182
1054.87	193
1054.59	175
1054.31	167
1054.03	162
1053.74	144
1053.46	140
1053.18	168
1052.89	152
1052.61	145
1052.33	154
1052.04	141
1051.76	155
1051.48	146
1051.2	160
1050.91	143
1050.63	147
1050.35	141
1050.06	151
1049.78	215
1049.5	256
1049.22	309
1048.93	219
1048.65	169
1048.37	157
1048.08	157
1047.8	137
1047.52	133
1047.24	164
1046.95	148
1046.67	142
1046.39	145
1046.1	157
1045.82	159
1045.54	163
1045.25	136
1044.97	147
1044.69	167
1044.4	141
1044.12	130
1043.84	162
1043.55	130
1043.27	174
1042.99	161
1042.7	127
1042.42	129
1042.14	156
1041.85	159
1041.57	154
1041.29	153
1041.01	152
1040.72	152
1040.44	123
1040.15	160
1039.87	136
1039.59	144
1039.3	161
1039.02	148
1038.74	139
1038.45	118
1038.17	150
1037.89	144
1037.6	136
1037.32	143
1037.04	155
1036.75	147
1036.47	143
1036.19	158
1035.9	149
1035.62	148
1035.34	136
1035.05	144
1034.77	141
1034.48	152
1034.2	141
1033.92	131
1033.63	126
1033.35	149
1033.07	163
1032.78	158
1032.5	142
1032.21	146
1031.93	145
1031.65	135
1031.36	128
1031.08	142
1030.8	152
1030.51	159
1030.23	134
1029.94	154
1029.66	154
1029.38	129
1029.09	144
1028.81	157
1028.52	149
1028.24	136
1027.96	143
1027.67	134
1027.39	133
1027.1	145
1026.82	126
1026.54	159
1026.25	126
1025.97	127
1025.68	147
1025.4	150
1025.12	142
1024.83	138
1024.55	144
1024.26	129
1023.98	137
1023.7	143
1023.41	145
1023.13	139
1022.84	140
1022.56	142
1022.28	152
1021.99	155
1021.71	143
1021.42	138
1021.14	154
1020.85	133
1020.57	128
1020.29	149
1020	148
1019.72	159
1019.43	139
1019.15	150
1018.86	158
1018.58	139
1018.3	144
1018.01	131
1017.73	140
1017.44	137
1017.16	160
1016.87	130
1016.59	127
1016.3	142
