#Acq. time (s)=	110
#Accumulations=	2
#Range=	Off
#Autofocus=	Off
#Macrospot=	Off
#AutoExposure=	Off
#Spike filter=	Multiple accum.
#Delay time (s)=	0
#Binning=	1
#Readout mode=	Signal
#DeNoise=	Off
#ICS correction=	Off
#Dark correction=	Off
#Inst. Process=	Off
#Instrument=	LabRAM HR Evol
#Detector=	Andor CCD
#Objective=	x100 LWD
#Grating=	1800 gr/mm
#ND Filter=	100%
#Laser (nm)=	532 
#Spectro (cm-¹)=	1240.03
#Hole=	49.98
#Range=	Visible
#AFM=	Off
#StageXY=	Marzhauser
#StageZ=	Marzhauser
#X (µm)=	717.1
#Y (µm)=	-1004.6
#Z (µm)=	135.1
#Project=	
#Sample=	
#Site=	
#Title=	Ne3
#Remark=	
#Date=	28.03.2022 19:48
#Acquired=	28.03.2022 19:48:51
1454.82	131
1454.55	141
1454.29	138
1454.02	139
1453.76	138
1453.5	128
1453.23	127
1452.97	172
1452.7	144
1452.44	158
1452.17	122
1451.91	161
1451.65	148
1451.38	156
1451.12	175
1450.85	174
1450.59	164
1450.32	191
1450.06	197
1449.79	233
1449.53	237
1449.27	263
1449	285
1448.74	407
1448.47	540
1448.21	1104
1447.94	5220
1447.68	21644
1447.41	41926
1447.15	51592
1446.88	45175
1446.62	25411
1446.36	9436
1446.09	3883
1445.83	2523
1445.56	1628
1445.3	759
1445.03	441
1444.77	318
1444.5	291
1444.24	273
1443.97	249
1443.71	217
1443.45	195
1443.18	200
1442.92	180
1442.65	179
1442.39	189
1442.12	189
1441.86	155
1441.59	165
1441.33	157
1441.06	167
1440.8	153
1440.53	145
1440.27	168
1440	153
1439.74	147
1439.47	140
1439.21	152
1438.94	158
1438.68	160
1438.41	143
1438.15	150
1437.88	134
1437.62	158
1437.35	140
1437.09	137
1436.82	149
1436.56	184
1436.29	445
1436.03	1042
1435.76	1437
1435.5	1391
1435.23	1045
1434.97	557
1434.7	249
1434.44	150
1434.17	125
1433.91	128
1433.64	119
1433.38	132
1433.11	123
1432.85	121
1432.58	133
1432.32	137
1432.05	123
1431.79	145
1431.52	127
1431.26	117
1430.99	107
1430.73	132
1430.46	117
1430.19	126
1429.93	120
1429.66	121
1429.4	105
1429.13	112
1428.87	96
1428.6	114
1428.34	131
1428.07	117
1427.81	115
1427.54	116
1427.27	132
1427.01	111
1426.74	117
1426.48	102
1426.21	113
1425.95	125
1425.68	129
1425.42	116
1425.15	117
1424.89	119
1424.62	118
1424.35	123
1424.09	109
1423.82	102
1423.56	126
1423.29	116
1423.03	119
1422.76	115
1422.49	113
1422.23	107
1421.96	127
1421.7	114
1421.43	113
1421.17	101
1420.9	112
1420.63	109
1420.37	122
1420.1	102
1419.84	115
1419.57	109
1419.3	128
1419.04	123
1418.77	104
1418.51	121
1418.24	102
1417.98	109
1417.71	98
1417.44	112
1417.18	104
1416.91	102
1416.65	111
1416.38	111
1416.11	111
1415.85	112
1415.58	107
1415.32	122
1415.05	104
1414.78	127
1414.52	135
1414.25	121
1413.99	110
1413.72	115
1413.45	104
1413.19	117
1412.92	117
1412.65	126
1412.39	114
1412.12	114
1411.86	130
1411.59	110
1411.32	113
1411.06	109
1410.79	132
1410.53	106
1410.26	91
1409.99	113
1409.73	116
1409.46	123
1409.19	101
1408.93	115
1408.66	114
1408.4	106
1408.13	113
1407.86	102
1407.6	122
1407.33	114
1407.06	124
1406.8	113
1406.53	108
1406.26	114
1406	102
1405.73	100
1405.46	113
1405.2	107
1404.93	109
1404.67	113
1404.4	112
1404.13	116
1403.87	117
1403.6	109
1403.33	113
1403.07	120
1402.8	122
1402.53	112
1402.27	123
1402	119
1401.73	129
1401.47	129
1401.2	162
1400.93	141
1400.67	159
1400.4	222
1400.13	441
1399.87	677
1399.6	953
1399.33	1790
1399.07	5158
1398.8	9546
1398.53	11716
1398.26	9372
1398	5272
1397.73	1650
1397.46	480
1397.2	233
1396.93	191
1396.66	152
1396.4	143
1396.13	136
1395.86	131
1395.6	133
1395.33	128
1395.06	136
1394.8	115
1394.53	121
1394.26	122
1393.99	132
1393.73	112
1393.46	131
1393.19	128
1392.93	113
1392.66	114
1392.39	114
1392.13	111
1391.86	124
1391.59	101
1391.32	105
1391.06	110
1390.79	105
1390.52	126
1390.25	106
1389.99	108
1389.72	108
1389.45	115
1389.19	104
1388.92	95
1388.65	98
1388.38	97
1388.12	125
1387.85	116
1387.58	117
1387.32	105
1387.05	115
1386.78	112
1386.51	127
1386.25	132
1385.98	118
1385.71	115
1385.44	113
1385.18	105
1384.91	106
1384.64	112
1384.37	102
1384.11	115
1383.84	116
1383.57	122
1383.3	98
1383.04	85
1382.77	93
1382.5	87
1382.23	102
1381.97	119
1381.7	108
1381.43	111
1381.16	94
1380.9	104
1380.63	108
1380.36	103
1380.09	104
1379.82	106
1379.56	105
1379.29	118
1379.02	111
1378.75	104
1378.49	112
1378.22	103
1377.95	112
1377.68	123
1377.42	115
1377.15	102
1376.88	115
1376.61	106
1376.34	106
1376.08	100
1375.81	119
1375.54	108
1375.27	105
1375	127
1374.74	118
1374.47	98
1374.2	117
1373.93	107
1373.66	112
1373.4	98
1373.13	123
1372.86	151
1372.59	320
1372.33	857
1372.06	1233
1371.79	1296
1371.52	978
1371.25	533
1370.99	244
1370.72	127
1370.45	150
1370.18	130
1369.91	130
1369.64	118
1369.38	122
1369.11	133
1368.84	169
1368.57	249
1368.3	231
1368.03	209
1367.77	145
1367.5	132
1367.23	97
1366.96	113
1366.69	130
1366.43	132
1366.16	110
1365.89	144
1365.62	106
1365.35	109
1365.08	100
1364.82	123
1364.55	99
1364.28	105
1364.01	111
1363.74	110
1363.47	112
1363.2	110
1362.94	99
1362.67	101
1362.4	107
1362.13	110
1361.86	102
1361.59	106
1361.32	123
1361.06	117
1360.79	107
1360.52	107
1360.25	112
1359.98	110
1359.71	115
1359.45	100
1359.18	115
1358.91	127
1358.64	124
1358.37	121
1358.1	104
1357.83	115
1357.57	99
1357.3	101
1357.03	120
1356.76	134
1356.49	100
1356.22	107
1355.95	104
1355.68	103
1355.41	115
1355.15	123
1354.88	108
1354.61	106
1354.34	99
1354.07	133
1353.8	110
1353.53	105
1353.26	106
1352.99	115
1352.73	118
1352.46	102
1352.19	114
1351.92	113
1351.65	114
1351.38	124
1351.11	103
1350.84	114
1350.57	115
1350.31	99
1350.04	115
1349.77	111
1349.5	116
1349.23	110
1348.96	105
1348.69	114
1348.42	104
1348.15	100
1347.88	106
1347.61	106
1347.35	114
1347.08	102
1346.81	111
1346.54	123
1346.27	108
1346	111
1345.73	90
1345.46	105
1345.19	123
1344.92	116
1344.65	117
1344.38	94
1344.11	121
1343.84	110
1343.57	106
1343.3	100
1343.04	113
1342.77	104
1342.5	116
1342.23	109
1341.96	115
1341.69	98
1341.42	104
1341.15	108
1340.88	112
1340.61	83
1340.34	83
1340.07	107
1339.8	110
1339.53	102
1339.26	126
1338.99	108
1338.72	111
1338.45	117
1338.19	106
1337.92	90
1337.65	104
1337.38	103
1337.11	112
1336.84	100
1336.57	104
1336.3	104
1336.03	105
1335.76	98
1335.49	134
1335.22	102
1334.95	103
1334.68	120
1334.41	96
1334.14	116
1333.87	119
1333.6	110
1333.33	115
1333.06	96
1332.79	91
1332.52	107
1332.25	112
1331.98	125
1331.71	92
1331.44	109
1331.17	92
1330.9	107
1330.63	100
1330.36	104
1330.09	117
1329.82	114
1329.55	137
1329.28	100
1329.01	99
1328.74	96
1328.47	112
1328.2	101
1327.93	102
1327.66	110
1327.39	109
1327.12	97
1326.85	108
1326.58	102
1326.31	112
1326.04	118
1325.77	126
1325.5	107
1325.23	101
1324.96	108
1324.69	122
1324.42	112
1324.15	104
1323.88	102
1323.61	99
1323.34	117
1323.07	107
1322.8	111
1322.53	103
1322.25	106
1321.98	107
1321.71	107
1321.44	113
1321.17	86
1320.9	94
1320.63	124
1320.36	112
1320.09	119
1319.82	99
1319.55	100
1319.28	103
1319.01	106
1318.74	104
1318.47	117
1318.2	121
1317.93	123
1317.66	104
1317.39	112
1317.12	103
1316.85	102
1316.57	124
1316.3	116
1316.03	126
1315.76	114
1315.49	106
1315.22	109
1314.95	111
1314.68	108
1314.41	100
1314.14	104
1313.87	108
1313.6	121
1313.33	112
1313.06	127
1312.79	120
1312.51	106
1312.24	125
1311.97	104
1311.7	181
1311.43	297
1311.16	437
1310.89	594
1310.62	1230
1310.35	2050
1310.08	2188
1309.81	1754
1309.54	1142
1309.26	731
1308.99	565
1308.72	468
1308.45	289
1308.18	173
1307.91	126
1307.64	117
1307.37	106
1307.1	111
1306.83	120
1306.55	112
1306.28	103
1306.01	110
1305.74	119
1305.47	105
1305.2	127
1304.93	104
1304.66	110
1304.39	87
1304.11	186
1303.84	110
1303.57	116
1303.3	107
1303.03	100
1302.76	101
1302.49	121
1302.22	99
1301.94	105
1301.67	123
1301.4	121
1301.13	123
1300.86	127
1300.59	112
1300.32	100
1300.04	116
1299.77	115
1299.5	114
1299.23	124
1298.96	115
1298.69	131
1298.42	157
1298.14	162
1297.87	156
1297.6	146
1297.33	108
1297.06	111
1296.79	114
1296.51	101
1296.24	97
1295.97	97
1295.7	119
1295.43	109
1295.16	114
1294.89	113
1294.61	113
1294.34	105
1294.07	82
1293.8	115
1293.53	98
1293.26	91
1292.98	98
1292.71	110
1292.44	97
1292.17	102
1291.9	102
1291.63	91
1291.35	118
1291.08	101
1290.81	106
1290.54	104
1290.27	92
1289.99	107
1289.72	111
1289.45	151
1289.18	157
1288.91	123
1288.63	124
1288.36	116
1288.09	111
1287.82	107
1287.55	107
1287.27	99
1287	97
1286.73	99
1286.46	110
1286.19	104
1285.92	102
1285.64	113
1285.37	96
1285.1	113
1284.83	105
1284.56	87
1284.28	111
1284.01	113
1283.74	109
1283.47	94
1283.19	108
1282.92	116
1282.65	91
1282.38	104
1282.1	114
1281.83	110
1281.56	94
1281.29	93
1281.02	101
1280.74	100
1280.47	95
1280.2	113
1279.93	98
1279.65	96
1279.38	101
1279.11	95
1278.84	147
1278.57	114
1278.29	99
1278.02	106
1277.75	112
1277.48	118
1277.2	100
1276.93	115
1276.66	110
1276.39	103
1276.11	110
1275.84	102
1275.57	116
1275.3	110
1275.02	122
1274.75	124
1274.48	96
1274.21	102
1273.93	106
1273.66	122
1273.39	107
1273.12	100
1272.84	123
1272.57	97
1272.3	118
1272.03	103
1271.75	104
1271.48	105
1271.21	81
1270.93	109
1270.66	90
1270.39	120
1270.11	79
1269.84	100
1269.57	94
1269.3	116
1269.02	114
1268.75	100
1268.48	96
1268.21	107
1267.93	88
1267.66	114
1267.39	103
1267.11	84
1266.84	112
1266.57	90
1266.3	95
1266.02	98
1265.75	99
1265.48	96
1265.2	101
1264.93	109
1264.66	110
1264.38	108
1264.11	87
1263.84	86
1263.57	108
1263.29	112
1263.02	110
1262.75	95
1262.47	103
1262.2	107
1261.93	99
1261.65	110
1261.38	105
1261.11	108
1260.83	105
1260.56	118
1260.29	109
1260.01	112
1259.74	102
1259.47	101
1259.19	112
1258.92	124
1258.65	84
1258.38	103
1258.1	98
1257.83	117
1257.55	109
1257.28	114
1257.01	91
1256.73	95
1256.46	101
1256.19	101
1255.91	122
1255.64	116
1255.37	99
1255.09	103
1254.82	116
1254.55	109
1254.27	154
1254	175
1253.73	217
1253.45	191
1253.18	151
1252.91	125
1252.63	111
1252.36	105
1252.08	116
1251.81	122
1251.54	128
1251.26	102
1250.99	108
1250.72	96
1250.44	122
1250.17	112
1249.9	99
1249.62	99
1249.35	112
1249.07	107
1248.8	89
1248.53	112
1248.25	106
1247.98	111
1247.71	98
1247.43	105
1247.16	100
1246.88	97
1246.61	116
1246.34	95
1246.06	104
1245.79	104
1245.51	100
1245.24	130
1244.97	111
1244.69	100
1244.42	105
1244.15	100
1243.87	113
1243.6	111
1243.32	130
1243.05	112
1242.77	116
1242.5	128
1242.23	127
1241.95	121
1241.68	118
1241.4	126
1241.13	128
1240.86	134
1240.58	117
1240.31	128
1240.03	134
1239.76	104
1239.48	102
1239.21	126
1238.94	105
1238.66	100
1238.39	99
1238.12	115
1237.84	103
1237.57	111
1237.29	108
1237.02	113
1236.74	102
1236.47	107
1236.19	119
1235.92	120
1235.65	121
1235.37	120
1235.1	102
1234.82	120
1234.55	114
1234.27	116
1234	111
1233.72	105
1233.45	161
1233.18	108
1232.9	97
1232.63	123
1232.35	98
1232.08	116
1231.8	103
1231.53	103
1231.25	101
1230.98	96
1230.7	116
1230.43	99
1230.16	113
1229.88	104
1229.61	99
1229.33	102
1229.06	112
1228.78	110
1228.51	108
1228.23	91
1227.96	109
1227.68	100
1227.41	85
1227.13	97
1226.86	97
1226.58	100
1226.31	103
1226.03	186
1225.76	103
1225.48	99
1225.21	116
1224.94	119
1224.66	103
1224.39	111
1224.11	101
1223.84	91
1223.56	115
1223.29	95
1223.01	114
1222.74	80
1222.46	118
1222.19	118
1221.91	100
1221.64	121
1221.36	112
1221.09	144
1220.81	189
1220.54	396
1220.26	1138
1219.99	2488
1219.71	3148
1219.44	2767
1219.16	1718
1218.89	764
1218.61	313
1218.33	201
1218.06	151
1217.78	150
1217.51	111
1217.24	134
1216.96	136
1216.68	120
1216.41	109
1216.13	128
1215.86	108
1215.58	115
1215.31	117
1215.03	116
1214.76	123
1214.48	106
1214.21	115
1213.93	110
1213.65	123
1213.38	102
1213.1	114
1212.83	118
1212.55	131
1212.28	111
1212	129
1211.73	130
1211.45	105
1211.18	110
1210.9	105
1210.63	122
1210.35	111
1210.07	118
1209.8	104
1209.52	105
1209.25	105
1208.97	122
1208.7	106
1208.42	123
1208.15	123
1207.87	121
1207.59	110
1207.32	112
1207.04	96
1206.77	122
1206.49	127
1206.22	113
1205.94	119
1205.66	117
1205.39	106
1205.11	104
1204.84	94
1204.56	102
1204.29	126
1204.01	126
1203.73	143
1203.46	118
1203.18	112
1202.9	125
1202.63	113
1202.35	109
1202.08	108
1201.8	96
1201.53	117
1201.25	146
1200.97	203
1200.7	181
1200.42	176
1200.15	130
1199.87	123
1199.59	108
1199.32	114
1199.04	104
1198.77	120
1198.49	120
1198.21	109
1197.94	119
1197.66	113
1197.38	118
1197.11	127
1196.83	105
1196.56	107
1196.28	130
1196	132
1195.73	228
1195.45	443
1195.18	523
1194.9	489
1194.62	357
1194.35	196
1194.07	123
1193.79	125
1193.52	124
1193.24	92
1192.97	111
1192.69	116
1192.41	119
1192.14	104
1191.86	107
1191.58	129
1191.31	132
1191.03	101
1190.75	102
1190.48	109
1190.2	110
1189.92	101
1189.65	107
1189.37	106
1189.1	121
1188.82	107
1188.54	123
1188.26	110
1187.99	126
1187.71	113
1187.44	108
1187.16	127
1186.88	120
1186.61	129
1186.33	124
1186.05	115
1185.78	137
1185.5	115
1185.22	114
1184.95	112
1184.67	116
1184.39	116
1184.12	108
1183.84	109
1183.56	115
1183.28	106
1183.01	109
1182.73	110
1182.46	114
1182.18	122
1181.9	95
1181.62	112
1181.35	126
1181.07	105
1180.79	103
1180.52	128
1180.24	132
1179.96	114
1179.69	112
1179.41	118
1179.13	114
1178.86	118
1178.58	128
1178.3	103
1178.02	95
1177.75	118
1177.47	103
1177.19	113
1176.92	108
1176.64	112
1176.36	106
1176.09	127
1175.81	92
1175.53	111
1175.25	113
1174.98	102
1174.7	115
1174.42	106
1174.14	118
1173.87	125
1173.59	101
1173.31	128
1173.04	118
1172.76	116
1172.48	114
1172.2	108
1171.93	113
1171.65	84
1171.37	110
1171.09	113
1170.82	106
1170.54	105
1170.26	127
1169.99	112
1169.71	119
1169.43	106
1169.15	127
1168.87	117
1168.6	118
1168.32	119
1168.04	112
1167.76	102
1167.49	161
1167.21	121
1166.93	111
1166.66	115
1166.38	112
1166.1	110
1165.82	106
1165.55	116
1165.27	111
1164.99	126
1164.71	123
1164.43	126
1164.16	111
1163.88	98
1163.6	99
1163.32	121
1163.04	116
1162.77	113
1162.49	122
1162.21	114
1161.93	113
1161.66	104
1161.38	110
1161.1	126
1160.82	119
1160.54	130
1160.27	148
1159.99	128
1159.71	113
1159.43	115
1159.16	122
1158.88	103
1158.6	114
1158.32	130
1158.04	125
1157.77	122
1157.49	126
1157.21	103
1156.93	110
1156.65	121
1156.38	137
1156.1	121
1155.82	129
1155.54	108
1155.26	117
1154.99	116
1154.71	150
1154.43	146
1154.15	123
1153.87	110
1153.59	112
1153.32	110
1153.04	152
1152.76	124
1152.48	124
1152.2	128
1151.93	126
1151.65	111
1151.37	105
1151.09	126
1150.81	133
1150.54	115
1150.26	137
1149.98	132
1149.7	115
1149.42	111
1149.14	121
1148.86	113
1148.59	130
1148.31	96
1148.03	119
1147.75	114
1147.47	137
1147.19	103
1146.92	140
1146.64	134
1146.36	139
1146.08	109
1145.8	112
1145.52	120
1145.25	128
1144.97	109
1144.69	105
1144.41	104
1144.13	128
1143.85	110
1143.57	118
1143.29	116
1143.02	118
1142.74	104
1142.46	131
1142.18	125
1141.9	121
1141.62	83
1141.34	118
1141.06	102
1140.79	119
1140.51	116
1140.23	127
1139.95	114
1139.67	102
1139.39	127
1139.11	156
1138.83	123
1138.55	118
1138.28	114
1138	124
1137.72	114
1137.44	115
1137.16	107
1136.88	135
1136.6	134
1136.32	128
1136.04	132
1135.77	199
1135.49	625
1135.21	1210
1134.93	1445
1134.65	1104
1134.37	607
1134.09	258
1133.81	181
1133.53	155
1133.26	133
1132.98	138
1132.7	127
1132.42	114
1132.14	127
1131.86	124
1131.58	110
1131.3	133
1131.02	127
1130.74	132
1130.46	127
1130.18	120
1129.91	128
1129.63	119
1129.35	106
1129.07	132
1128.79	114
1128.51	163
1128.23	130
1127.95	125
1127.67	136
1127.39	120
1127.11	118
1126.83	143
1126.55	134
1126.27	127
1125.99	127
1125.71	118
1125.44	123
1125.16	142
1124.88	178
1124.6	273
1124.32	344
1124.04	321
1123.76	229
1123.48	171
1123.2	129
1122.92	120
1122.64	127
1122.36	130
1122.08	108
1121.8	139
1121.52	137
1121.24	137
1120.96	128
1120.68	130
1120.4	110
1120.12	136
1119.84	126
1119.56	130
1119.28	126
1119.01	127
1118.72	140
1118.44	148
1118.16	140
1117.89	176
1117.6	238
1117.32	705
1117.05	2534
1116.77	4567
1116.49	4812
1116.21	3180
1115.93	1419
1115.65	445
1115.37	283
1115.09	421
1114.81	715
1114.53	708
1114.25	561
1113.97	290
1113.69	169
1113.41	153
1113.13	143
1112.85	136
1112.57	127
1112.29	147
1112.01	122
1111.73	138
1111.45	112
1111.17	128
1110.89	128
1110.61	125
1110.32	136
1110.05	131
1109.77	129
1109.48	131
1109.2	138
1108.92	126
1108.64	143
1108.36	145
1108.08	130
1107.8	124
1107.52	116
1107.24	132
1106.96	116
1106.68	127
1106.4	114
1106.12	140
1105.84	123
1105.56	154
1105.28	138
1105	139
1104.72	148
1104.44	264
1104.16	562
1103.88	863
1103.6	812
1103.32	596
1103.04	275
1102.76	160
1102.48	133
1102.2	141
1101.92	133
1101.63	144
1101.35	135
1101.07	122
1100.79	131
1100.51	137
1100.23	141
1099.95	138
1099.67	129
1099.39	141
1099.11	171
1098.83	149
1098.55	277
1098.27	590
1097.99	849
1097.7	894
1097.42	574
1097.14	299
1096.86	188
1096.58	118
1096.3	148
1096.02	144
1095.74	119
1095.46	127
1095.18	139
1094.9	113
1094.62	134
1094.34	131
1094.05	138
1093.77	136
1093.49	128
1093.21	136
1092.93	136
1092.65	133
1092.37	116
1092.09	192
1091.81	266
1091.53	303
1091.24	278
1090.96	194
1090.68	159
1090.4	133
1090.12	140
1089.84	127
1089.56	126
1089.28	134
1089	117
1088.71	115
1088.43	122
1088.15	147
1087.87	136
1087.59	122
1087.31	119
1087.03	110
1086.75	125
1086.47	119
1086.18	126
1085.9	116
1085.62	124
1085.34	132
1085.06	144
1084.78	128
1084.5	139
1084.21	112
1083.93	138
1083.65	141
1083.37	140
1083.09	143
1082.81	124
1082.53	139
1082.25	147
1081.96	135
1081.68	150
1081.4	113
1081.12	123
1080.84	151
1080.56	130
1080.27	150
1079.99	127
1079.71	139
1079.43	129
1079.15	132
1078.87	133
1078.59	121
1078.3	156
1078.02	135
1077.74	129
1077.46	128
1077.18	131
1076.9	130
1076.61	116
1076.33	129
1076.05	145
1075.77	143
1075.49	153
1075.2	133
1074.92	125
1074.64	128
1074.36	136
1074.08	130
1073.8	126
1073.51	170
1073.23	129
1072.95	155
1072.67	122
1072.39	166
1072.11	125
1071.82	145
1071.54	118
1071.26	133
1070.98	143
1070.69	126
1070.41	131
1070.13	121
1069.85	129
1069.57	139
1069.28	138
1069	197
1068.72	286
1068.44	295
1068.16	236
1067.87	151
1067.59	149
1067.31	130
1067.03	136
1066.74	137
1066.46	150
1066.18	121
1065.9	137
1065.62	135
1065.33	132
1065.05	143
1064.77	153
1064.49	144
1064.21	146
1063.92	136
1063.64	109
1063.36	147
1063.08	120
1062.79	131
1062.51	123
1062.23	160
1061.95	174
1061.66	220
1061.38	230
1061.1	197
1060.82	157
1060.53	137
1060.25	130
1059.97	129
1059.69	139
1059.41	137
1059.12	132
1058.84	132
1058.56	147
1058.27	123
1057.99	149
1057.71	164
1057.43	148
1057.15	149
1056.86	134
1056.58	131
1056.3	165
1056.01	210
1055.73	173
1055.45	192
1055.17	137
1054.88	150
1054.6	142
1054.32	139
1054.04	137
1053.75	169
1053.47	147
1053.19	136
1052.9	156
1052.62	152
1052.34	157
1052.06	137
1051.77	142
1051.49	151
1051.21	148
1050.92	157
1050.64	268
1050.36	283
1050.07	304
1049.79	228
1049.51	154
1049.23	154
1048.94	145
1048.66	142
1048.38	149
1048.09	125
1047.81	141
1047.53	167
1047.24	138
1046.96	143
1046.68	139
1046.4	141
1046.11	136
1045.83	133
1045.55	151
1045.26	139
1044.98	142
1044.7	127
1044.41	131
1044.13	122
1043.85	136
1043.56	152
1043.28	241
1043	144
1042.71	158
1042.43	144
1042.15	135
1041.87	139
1041.58	127
1041.3	145
1041.02	132
1040.73	153
1040.45	146
1040.16	141
1039.88	153
1039.6	125
1039.31	141
1039.03	147
1038.75	142
1038.46	151
1038.18	151
1037.9	138
1037.61	126
1037.33	125
1037.05	158
1036.76	156
1036.48	167
1036.2	132
1035.91	127
1035.63	143
1035.34	149
1035.06	147
1034.78	134
1034.49	151
1034.21	141
1033.93	161
1033.64	121
1033.36	143
1033.08	131
1032.79	149
1032.51	154
1032.23	137
1031.94	131
1031.66	143
1031.37	156
1031.09	150
1030.81	146
1030.52	139
1030.24	147
1029.95	169
1029.67	159
1029.39	153
1029.1	129
1028.82	160
1028.53	133
1028.25	153
1027.97	151
1027.68	135
1027.4	149
1027.11	141
1026.83	161
1026.55	137
1026.26	141
1025.98	153
1025.69	151
1025.41	138
1025.13	137
1024.84	157
1024.56	145
1024.27	155
1023.99	140
1023.71	172
1023.42	156
1023.14	150
1022.85	151
1022.57	149
1022.29	117
1022	133
1021.72	137
1021.43	147
1021.15	159
1020.86	134
1020.58	153
1020.3	138
1020.01	157
1019.73	170
1019.44	151
1019.16	134
1018.87	151
1018.59	150
1018.31	159
1018.02	149
1017.74	138
1017.45	146
1017.17	175
1016.88	149
1016.6	152
1016.31	164
